#num |   glon     |     glat     |     P(%)    |     sP(%)   |   PA,deg      |  sPA(deg) |     HD      |  dist(pc)    | no     |
   1     284.14500     -35.98880       0.93000       0.09000      84.27630       4.00000         29921     423.14100   
   2     284.40800     -35.85240       0.98000       0.08000      86.28060       2.00000        270592     252.28320
   3     280.59500     -37.07390       0.44000       0.07000     -83.73140       5.00000        270587     460.72330
   4     283.83700     -35.83080       0.95000       0.15000      86.18390       5.00000        270627    1152.87060
   5     281.74500     -36.40940       0.45000       0.18000      88.47040      12.00000        270639     364.15280
   6     280.38700     -36.77750       0.07000       0.03000     -77.73180      13.00000         30363     268.03900
   7     281.93700     -36.25680       0.09000       0.13000      51.62020      35.00000             0    7711.78300    F P 90
   8     281.20300     -36.48360       0.49000       0.09000     -64.01980       5.00000             0    8418.19800    F P 91
   9     280.76400     -36.58770       0.47000       0.05000      84.27140       3.00000        270668     318.94870
  10     283.69100     -35.63160       0.12000       0.07000      86.96610      16.00000         30568     111.02850
  11     281.50200     -36.22470       0.45000       0.11000     -66.72980       9.00000             0    10553.03400   F P 130 
  12     281.58200     -36.06230       0.45000       0.09000     -72.40380       3.00000             0    9700.87300    F P 154
  13     277.75300     -37.06320       0.20000       0.07000      28.68460       9.00000         30818      73.88470
  14     282.01200     -35.85170       0.98000       0.11000     -83.39190       3.00000         30956     760.91920
  15     281.76200     -35.88060       1.29000       0.18000     -82.15060       4.00000        269244    13107.62200
  16     281.13700     -35.99800       0.15000       0.22000     -81.67780      46.00000        269357    7256.83200
  17     280.88900     -36.03110       0.63000       0.10000     -67.45990       5.00000        271182    7677.14700
  18     280.54300     -36.09000       0.66000       0.23000     -59.19320      10.00000        269408    9164.10200
  19     279.04700     -36.42350       0.24000       0.19000      31.72610      41.00000         31249     114.27400
  20     282.02900     -35.59530       0.85000       0.06000     -80.71740       2.00000         31335     264.87960
  21     281.39500     -35.74000       0.89000       0.16000     -77.31830       3.00000             0    7383.26300    F P 240
  22     279.29300     -36.22160       0.36000       0.11000     -56.06380       9.00000        268625    2166.84720
  23     279.25400     -36.12340       0.11000       0.06000       7.21880      18.00000         31532      56.13440
  24     280.70400     -35.74530       0.81000       0.12000     -60.49960       4.00000        269682    8872.18800
  25     281.91700     -35.38590       0.18000       0.04000      79.99260       7.00000        268742     207.53350
  26     282.71400     -35.07390       0.43000       0.08000      88.86760       5.00000        268795     450.02480
  27     281.39600     -35.43020       0.57000       0.21000     -83.49380      11.00000          1035    1035.15600
  28     280.09000     -35.77470       0.75000       0.10000     -79.86160       4.00000        268698     271.99200
  29     283.41400     -34.84740       0.15000       0.08000      -8.37441      15.00000         31853     118.09160
  30     280.36000     -35.63910       1.04000       0.22000     -65.82550       6.00000        269758    9232.16000
  31     280.95800     -35.40980       0.31000       0.14000     -34.92150      12.00000        269809    11490.83200
  32     279.15200     -35.85480       0.38000       0.20000     -66.01310      15.00000             0     263.64360    A 619 
  33     277.20700     -36.23570       0.12000       0.13000      80.14410      77.00000        268667     462.06450
  34     282.37100     -34.81440       0.53000       0.36000      32.02460      16.00000         32375     360.55530
  35     281.17000     -35.12730       0.20000       0.33000     -74.41770      47.00000        270100    11525.29200
  36     281.03400     -35.10720       0.41000       0.13000     -65.20860       6.00000             0    9026.99600    F P 395
  37     281.04100     -35.06920       0.66000       0.09000     -70.11520       3.00000        270305    12475.82400
  38     278.85600     -35.56260       0.32000       0.22000      61.01750      20.00000             0     727.43140    A 621
  39     281.19500     -34.96760       0.61000       0.12000     -84.01830       6.00000             0       0.00000
  40     277.82800     -35.73100       0.43000       0.08000     -60.32390       4.00000         32546    1235.33050
  41     280.91400     -34.95530       0.58000       0.16000     -75.66890       8.00000        268892    1405.28390
  42     281.18700     -34.88860       0.38000       0.43000     -59.79700      17.00000             0       0.00000    F P 432
  43     281.23900     -34.85780       0.34000       0.15000     -75.77310      10.00000        268909     814.06710
  44     282.22900     -34.61000       0.18000       0.07000     -87.22850      10.00000        268935     760.74550
  45     281.20800     -34.82960       0.37000       0.28000     -61.66170      22.00000        268910     390.19820
  46     278.73800     -35.40300       0.63000       0.31000     -82.47160      14.00000        268874     418.41000
  47     278.40200     -35.47650       0.40000       0.11000      57.69540       8.00000        268885     226.73680
  48     280.15400     -35.08150       0.45000       0.05000     -72.16250       3.00000         33030    1497.67860
  49     281.32500     -34.80110       0.41000       0.07000     -75.71610       4.00000        268957     631.23340
  50     279.54600     -35.22200       0.31000       0.27000      38.13160      25.00000        268934     223.05500
  51     278.83700     -35.38120       0.20000       0.05000     -60.52050      13.00000         33117     289.16780
  52     280.70100     -34.95200       0.75000       0.14000     -67.42340       5.00000        268980     618.31450
  53     280.07500     -35.09980       0.10000       0.04000      14.87520      11.00000         33477     205.36410
  54     278.12500     -35.53640       0.09000       0.45000     -69.16600     151.00000             0    1709.98630    A 638
  55     281.22700     -34.82490       0.66000       0.07000     -68.67080       3.00000        269048     356.72300
  56     281.48000     -34.76290       0.13000       0.06000     -39.78830      12.00000             0     487.89000    A 640
  57     283.96800     -34.11940       0.15000       0.08000     -65.89420      17.00000         34171     301.66820
  58     280.38800     -35.02630       0.09000       0.06000     -78.27490      20.00000         34144     438.73120
  59     278.30300     -34.51530       0.59000       0.23000     -64.88450      11.00000        269089     386.23400
  60     276.85800     -34.77150       0.48000       0.10000     -72.17470       6.00000         34127     607.64420
  61     281.27100     -33.88660       0.23000       0.10000     -79.15430      13.00000        269157    1460.70700
  62     276.13000     -34.75790       0.33000       0.15000     -73.50710      13.00000             0    1655.86700    A 645
  63     282.13100     -33.51850       0.22000       0.12000     -76.00280      16.00000        269221     208.33770
  64     282.23300     -33.44700       0.13000       0.07000      -3.90169      14.00000         34711     225.01740
  65     281.65500     -33.43760       0.06000       0.06000      17.71340      32.00000         34900    10737.00400
  66     277.74600     -34.10300       0.34000       0.27000     -82.38650      29.00000        269218     777.00080
  67     278.40300     -33.93710       0.42000       0.15000     -73.55900      10.00000        269247    1020.72060
  68     283.73800     -32.92080       0.08000       0.08000     -72.89970      22.00000         35107     349.55260
  69     281.46500     -33.34620       0.07000       0.04000      37.15870      12.00000         35095     189.58420
  70     279.15900     -33.59470       0.15000       0.08000      87.63190      21.00000        269310     432.80680
  71     277.98800     -33.73290       0.67000       0.16000     -83.70070       6.00000         35323    1315.27030
  72     278.36800     -33.60730       0.33000       0.12000     -81.71440       8.00000        269344    1895.01610
  73     277.96800     -33.63900       0.31000       0.14000     -88.45510      13.00000        269346     191.74720
  74     278.38100     -33.57660       0.46000       0.11000     -70.64980       7.00000        269352    1550.86850
  75     275.65100     -33.95130       0.16000       0.09000     -83.31440      14.00000         35446     254.01990
  76     277.27900     -33.65050       0.82000       0.17000     -65.91630       6.00000        269376    1371.36590
  77     277.96700     -33.54220       0.31000       0.10000     -77.21920       9.00000        269386    1070.26500
  78     278.45200     -33.43250       0.28000       0.08000     -73.35160       9.00000         35665     337.05210
  79     280.19000     -33.13420       0.37000       0.08000     -73.07490       7.00000        269409     356.43000
  80     275.95300     -33.71560       0.49000       0.12000     -57.02040       7.00000        271187     620.30890
  81     275.67500     -33.75010       0.45000       0.25000      88.11480       7.00000        271190     236.59120
  82     279.52900     -33.16670       0.16000       0.10000     -63.58610      18.00000        269423     438.86600
  83     280.52000     -32.98330       0.20000       0.12000     -42.95850      18.00000        269442      85.55120
  84     275.77800     -33.64400       0.75000       0.07000     -70.72630       2.00000        271204     411.92950
  85     279.97000     -32.77510       0.47000       0.06000     -58.92650       4.00000        269513     356.63340
  86     280.26100     -32.72340       0.04000       0.07000      52.96870      65.00000         36436     194.94700
  87     277.15800     -33.11250       0.57000       0.20000     -68.54620      10.00000        269521    38022.86500
  88     278.17400     -32.94710       0.07000       0.06000     -52.92460      45.00000         36479     159.15960
  89     281.58500     -32.42810       0.17000       0.07000      55.66120      12.00000         36621     127.31230
  90     278.32900     -32.80400       0.51000       0.18000      37.31080      10.00000         36650     376.64780
  91     282.11200     -32.27130       0.13000       0.13000      69.65740      23.00000         36766     164.99470
  92     281.31500     -32.38510       0.32000       0.05000     -76.98410       5.00000         36751     681.89570
  93     278.31400     -32.72060       0.73000       0.13000     -68.47030       5.00000        269605     457.04400
  94     276.77600     -32.85850       0.53000       0.07000     -72.66560       4.00000         36805     446.86750
  95     280.97000     -32.26490       0.26000       0.09000      86.64220      10.00000         37084    1095.17030
  96     280.63400     -32.28540       0.32000       0.09000     -77.14240       8.00000         37122     551.20710
  97     276.59700     -32.72740       0.07000       0.07000     -51.23190      16.00000         37083     252.54440
  98     281.63900     -32.11140       0.36000       0.07000     -72.47160       6.00000         37181     405.30130
  99     279.65000     -32.24460       0.33000       0.08000     -63.26270       7.00000        269704     796.05160
 100     281.40700     -31.94320       0.05000       0.05000      55.20120      29.00000         37502     215.03060
 101     277.49100     -32.29380       0.36000       0.08000     -59.82670       6.00000        269767    1219.51220
 102     279.67500     -32.03550       0.14000       0.11000      89.27240      22.00000        269764     173.86160
 103     279.96100     -31.95850       0.42000       0.05000     -61.73220       3.00000             0       0.00000
 104     279.16000     -32.03840       0.58000       0.13000     -77.36070       7.00000        269788    2692.51480
 105     279.13400     -31.85890       0.63000       0.20000     -55.87630       6.00000        269866     910.24940
 106     279.23100     -31.84010       0.39000       0.05000     -69.89450       4.00000        269869     289.72070
 107     279.04900     -31.81270       0.45000       0.06000     -55.69730       4.00000        269881     274.55930
 108     279.17500     -31.71860       0.06000       0.14000      79.46080      66.00000        269916     242.95300
 109     280.24100     -31.58580       0.38000       0.13000     -87.92410      10.00000        269911     312.06120
 110     280.21900     -31.57060       0.68000       0.23000      23.13270      10.00000         38329     224.43500
 111     277.05600     -31.79590       0.08000       0.03000     -53.34470      18.00000         38305     102.64100
 112     278.13800     -31.42760       0.46000       0.07000     -59.12280       4.00000        270038    1554.00160
 113     280.73900     -31.20100       0.46000       0.16000     -61.20340      10.00000        270011    1113.08990
 114     278.13300     -31.38100       0.13000       0.19000      79.99650      41.00000        270053    1085.89420
 115     272.86000     -31.56150       0.34000       0.06000     -82.42610       9.00000        271517     444.52350
 116     280.55200     -31.11560       0.50000       0.12000     -65.84090       7.00000         39015     355.47970
 117     277.56000     -31.31540       0.43000       0.13000     -63.49500       9.00000        270083    1485.88410
 118     278.35700     -31.26220       0.41000       0.08000     -87.84240       6.00000        270073     281.79330
 119     279.87100     -31.14740       0.04000       0.07000      -4.48695      50.00000        270056     209.57770
 120     279.90100     -31.06590       0.54000       0.07000     -86.28640       4.00000        270072     297.99150
 121     277.95500     -31.13850       0.38000       0.08000     -68.29330       7.00000        270119     338.71900
 122     277.75600     -31.09350       0.17000       0.06000     -39.06670      10.00000        270134     209.64360
 123     277.44200     -31.07270       0.11000       0.14000     -42.83690      24.00000         39371     161.31630
 124     278.87600     -30.96020       0.33000       0.20000     -81.38320      17.00000        270133     464.27410
 125     277.82600     -30.99460       0.27000       0.05000     -75.86350       5.00000         39475     592.59260
 126     277.02700     -30.98710       0.52000       0.11000     -74.39940       6.00000             0     855.57000    A 707
 127     280.14500     -30.77730       0.50000       0.03000     -74.65280       2.00000         39674     899.28060
 128     274.34100     -30.95720       0.13000       0.13000     -58.92660      28.00000        271586     674.30880
 129     274.06700     -30.88780       0.38000       0.37000     -66.64300      28.00000             0    3436.86200    A 710
 130     279.52800     -30.60580       0.28000       0.07000     -79.83130       7.00000        270197     320.32800
 131     277.84100     -30.62460       0.27000       0.14000     -87.95880      15.00000        270246     536.19300
 132     278.32400     -30.58510       0.19000       0.21000      63.88320      32.00000        270239    1572.24100
 133     280.94800     -30.42500       0.10000       0.07000     -85.14620      12.00000         40277     207.96940
 134     278.07000     -30.54930       0.29000       0.07000     -87.89240      12.00000        270262     636.17280
 135     275.24400     -30.62380       0.28000       0.14000      67.35600      14.00000        271635     194.01280
 136     274.41100     -30.63680       0.53000       0.24000      83.72640      13.00000             0    3907.77650    A 719
 137     277.56500     -30.52120       0.21000       0.09000     -67.56100      13.00000        270288     848.75230
 138     278.06700     -30.50250       0.52000       0.31000      44.22550      17.00000        270273     371.76100
 139     274.19700     -30.51090       0.09000       0.06000     -80.90420      26.00000             0       0.00000    A P 1635
 140     279.66500     -30.35090       0.29000       0.15000      74.77300      13.00000        270261     343.39480
 141     275.47200     -30.42430       0.21000       0.27000     -61.30820      37.00000        271660     248.75000
 142     273.79000     -30.42640       1.36000       0.20000      67.45930       4.00000        271664     832.63950
 143     279.50600     -30.29640       0.20000       0.02000     -85.99750       3.00000         40597     768.04920
 144     278.05400     -30.20310       0.10000       0.13000     -69.02140      39.00000             0    11374.4070    A S 104
 145     276.89600     -30.20100       0.11000       0.07000      84.53740      48.00000         40809      81.67870
 146     274.60300     -30.52870       0.29000       0.07000      62.86910       6.00000        271689     311.11940
 147     275.02500     -30.03410       0.51000       0.29000      34.75770      15.00000         41048     491.23150
 148     280.60300     -29.89540       0.39000       0.20000     -88.46810      15.00000         41279     737.24570
 149     275.10300     -29.84730       0.08000       0.03000      87.13550      14.00000         41355     311.00330
