#num |   glon     |     glat     |     P(%)    |     sP(%)   |   PA,deg      |  sPA(deg) |     HD      |  dist(pc)   |
  1     277.98500     -37.96000       0.04000       0.08000     -59.03060      45.00000         29794     592.41710
  2     280.89400     -35.59620       0.60000       0.05000     -78.13920       2.00000         31722     287.87750
  3     276.64100     -36.55130       0.39000       0.06000     -76.44230       4.00000        270856     425.62250
  4     284.74300     -34.40920       0.09000       0.08000      68.91150       3.00000         32035     170.04200
  5     279.68300     -35.19930       0.22000       0.04000     -74.69930       5.00000         32762     272.41280
  6     280.56800     -34.94250       0.29000       0.07000     -72.08110       7.00000         32858     262.03390
  7     280.69300     -34.81370       0.09000       0.04000      85.10210      15.00000         33031     222.55360
  8     278.01700     -35.12180       0.31000       0.07000     -78.70200       7.00000        268943     954.91900
  9     278.92500     -34.86500       0.33000       0.03000     -75.04990       3.00000         33486     287.17480
 10     275.30800     -34.65230       0.48000       0.05000     -66.06700       3.00000         34543     411.43800
 11     278.63600     -34.10560       0.08000       0.06000     -80.91670      32.00000         34651     145.26230
 12     279.19900     -33.63610       0.09000       0.09000     -76.31130      24.00000         35230     185.75580
 13     278.91300     -33.63470       0.20000       0.03000     -67.03310       4.00000         35293     428.98200
 14     285.57400     -32.34080       0.23000       0.07000      27.39840       9.00000         35605     186.42110
 15     279.18800     -33.49860       0.32000       0.14000     -79.95680      12.00000         35462     419.34000
 16     281.74600     -32.89560       0.21000       0.05000     -79.90730       7.00000         35679     422.70790
 17     276.13800     -33.29920       0.43000       0.04000     -61.81120       3.00000         36257     284.85970
 18     280.60500     -32.45700       0.33000       0.11000     -63.57990       9.00000        450560       0.00000
 19     276.47400     -32.85910       0.03000       0.05000      28.91600      38.00000         36849     145.25590
 20     281.62100     -32.23100       0.30000       0.06000     -69.90580       6.00000         37027     430.55200
 21     279.15900     -32.40750       0.39000       0.09000      82.82520       6.00000        269665     371.88550
 22     280.47500     -32.17890       0.33000       0.12000     -62.71130      10.00000        269696     367.80930
 23     271.72600     -32.76400       0.44000       0.02000     -71.53870       2.00000         37350     321.34710
 24     281.45900     -31.25670       0.19000       0.19000     -83.98920      29.00000        269967    1408.84760
 25     277.78700     -31.11790       0.10000       0.03000      -6.93167       7.00000         39282     131.75750
 26     276.81500     -30.80290       0.03000       0.03000     -15.56610      28.00000         39844     173.70160
 27     276.98800     -30.75800       0.07000       0.07000      71.43540      27.00000         39903     195.66790
 28     274.89300     -30.77920       0.02000       0.05000       9.60035       5.00000         39902     224.48200
 29     279.56700     -30.41680       0.20000       0.24000     -24.31040      34.00000        270249    1771.17000
 30     275.60200     -30.31630       0.10000       0.04000     -87.76670      10.00000         40624     299.72430
 31     285.77900     -28.73540       0.04000       0.05000     -69.96720      16.00000         43834             -  
